#This is a redo of Oppenheimer et al. 1998 229b spectrum to lam, F_lam in optical.  
#
#From his header:
#The first column is wavelength in microns.  The second column is flux
#density in millijanskies.  Gaps exist in the data in the following
#ranges, where telluric absorption prohibits a measurement (all
#wavelengths are given in microns): [1.1236, 1.1561], [1.3333, 1.3986],
#[1.9231, 2.0000], [2.5317, 2.9840] and [4.1667, 4.5455].  In addition,
#the resolution is much higher in the wavelength range 0.837 to 1.0
#micron.  The paper contains complete descriptions of the data
#collection and reduction techniques.
#
#lambda (A)  f_lam (erg/s/cm2/A)
8374.7200	1.8250300e-17
8377.4400	2.5739000e-17
8380.1500	2.3552200e-17
8382.8600	2.1909000e-17
8385.5800	1.8569900e-17
8388.3000	1.7364100e-17
8391.0100	1.7301800e-17
8393.7300	1.6436100e-17
8396.4400	2.2655200e-17
8399.1700	1.7993900e-17
8401.8900	1.9903200e-17
8404.6000	1.7398700e-17
8407.3100	2.5044200e-17
8410.0300	1.8315100e-17
8412.7600	2.2858600e-17
8415.4700	2.3852000e-17
8418.1900	2.3275000e-17
8420.9100	1.9754100e-17
8423.6300	2.1694600e-17
8426.3500	1.9669500e-17
8429.0800	2.2910800e-17
8431.8000	1.9691900e-17
8434.5100	2.2836400e-17
8437.2400	2.0309800e-17
8439.9500	2.0906200e-17
8442.6800	2.3530200e-17
8445.4000	2.2166200e-17
8448.1200	1.9593500e-17
8450.8500	2.5386200e-17
8453.5700	3.1529600e-17
8456.2900	1.8635500e-17
8459.0100	2.0384400e-17
8461.7400	2.7083400e-17
8464.3100	2.4342400e-17
8466.9200	2.3529400e-17
8469.5300	2.4457400e-17
8472.1400	2.3915600e-17
8475.7000	2.8191400e-17
8478.2600	2.9354200e-17
8480.8100	2.5974600e-17
8483.3700	2.5984000e-17
8486.4500	3.0238800e-17
8489.0700	2.7692000e-17
8491.6800	3.0027000e-17
8494.3000	2.7935000e-17
8496.9100	2.5599200e-17
8499.5200	2.9492600e-17
8502.1400	3.5807600e-17
8505.7000	3.0644000e-17
8508.2600	3.2628600e-17
8510.8100	3.2542800e-17
8513.3700	2.7316000e-17
8516.4600	2.4161000e-17
8519.0800	1.4985900e-17
8521.6900	1.2330100e-17
8524.3100	1.6960300e-17
8526.9200	2.3007000e-17
8529.5300	2.8042800e-17
8533.1500	2.9420000e-17
8535.7300	2.9728800e-17
8538.3100	3.1071600e-17
8540.8600	3.3408200e-17
8543.4200	3.3684000e-17
8546.5300	2.7764400e-17
8549.1500	3.1978000e-17
8551.7700	3.0656600e-17
8554.3800	2.9397000e-17
8557.0000	3.0881400e-17
8559.6100	3.6128200e-17
8562.2300	2.7946400e-17
8565.8000	3.0676200e-17
8568.3600	3.4932000e-17
8570.9200	3.4742400e-17
8573.5000	3.5807200e-17
8576.5900	3.1488200e-17
8579.2400	3.1648000e-17
8581.8500	3.4186800e-17
8584.4700	3.2830800e-17
8587.0900	3.4058400e-17
8589.7100	3.4677400e-17
8592.3200	3.6980600e-17
8595.9000	3.1019200e-17
8598.4500	3.8229000e-17
8601.0400	3.8462800e-17
8603.6100	3.5700200e-17
8606.7200	3.6587000e-17
8609.3400	3.4325000e-17
8611.9600	3.5679400e-17
8614.5700	3.8153400e-17
8617.1900	3.9606200e-17
8619.8100	3.7375000e-17
8622.4300	3.3045400e-17
8626.0600	3.7845000e-17
8628.6300	4.0981400e-17
8631.1900	4.6463400e-17
8633.7600	4.1984400e-17
8636.8200	3.8485400e-17
8639.4500	4.3019800e-17
8642.0600	4.3285600e-17
8644.7200	3.6555000e-17
8647.3500	3.6661200e-17
8649.9800	3.8742600e-17
8652.5900	4.1524200e-17
8656.1800	4.8234800e-17
8658.7400	4.7104400e-17
8661.3000	4.5845000e-17
8663.8900	4.6379800e-17
8667.0000	4.7286400e-17
8669.6200	5.0038400e-17
8672.2500	4.2197600e-17
8674.8700	4.1568800e-17
8677.4900	4.4383200e-17
8680.1100	5.0068800e-17
8682.7800	4.5642200e-17
8686.3800	4.7285000e-17
8688.9300	4.5609400e-17
8691.5000	4.9249400e-17
8694.0600	5.2779200e-17
8697.1700	4.9758800e-17
8699.8100	4.9461800e-17
8702.4300	5.1787600e-17
8705.0600	4.6889600e-17
8707.6900	5.0198000e-17
8710.3000	5.0932400e-17
8712.9500	4.8843800e-17
8716.5700	5.3812600e-17
8719.1400	5.6703600e-17
8721.7000	6.1418600e-17
8724.2600	5.3983200e-17
8727.3700	4.9738000e-17
8730.0100	4.9141200e-17
8732.6300	5.0347000e-17
8735.2700	5.4303200e-17
8737.8900	5.9093000e-17
8740.5100	5.5049600e-17
8743.1600	5.8901600e-17
8746.7800	6.1963600e-17
8749.3400	5.8517800e-17
8751.9000	5.6875200e-17
8754.4600	5.8710400e-17
8757.5700	5.6139200e-17
8760.2200	6.1109000e-17
8762.8500	6.7339000e-17
8765.4800	6.5130400e-17
8768.1000	5.4784400e-17
8770.7500	6.4799800e-17
8773.4000	5.4772800e-17
8776.9900	6.0361800e-17
8779.5500	6.6400800e-17
8782.1100	6.4256400e-17
8784.7200	5.9125600e-17
8787.8300	5.8889600e-17
8790.4500	6.1334000e-17
8793.0800	5.9476200e-17
8795.7000	6.6400200e-17
8798.3500	6.4748000e-17
8801.0000	6.5300200e-17
8803.6200	6.8982400e-17
8807.2000	6.7147400e-17
8809.7600	6.8747200e-17
8812.3800	6.8747600e-17
8814.9700	7.0900200e-17
8818.0600	6.0991600e-17
8820.6900	6.1952600e-17
8823.3100	7.0016000e-17
8825.9600	7.5935600e-17
8828.6100	6.6198600e-17
8831.2300	6.9098000e-17
8834.8600	7.3899400e-17
8837.4400	6.9034200e-17
8840.0400	7.5125800e-17
8842.6200	7.8187000e-17
8845.1800	7.6137600e-17
8848.3000	7.7376600e-17
8850.9300	7.3567400e-17
8853.6000	7.3867600e-17
8856.2300	7.6116200e-17
8858.8500	7.0592000e-17
8861.4900	7.9423400e-17
8864.1100	7.1829200e-17
8867.7200	7.4176800e-17
8870.2800	7.8282400e-17
8872.8500	7.5808400e-17
8875.9200	7.6799400e-17
8878.5700	7.8303600e-17
8881.2300	7.3398600e-17
8883.8600	6.8884800e-17
8886.4800	7.5872400e-17
8889.1100	7.6799400e-17
8891.7400	8.7434000e-17
8895.3800	8.4289000e-17
8897.9500	8.4192200e-17
8900.5100	7.8751200e-17
8903.0800	7.7525000e-17
8906.2100	7.5370200e-17
8908.8500	7.5668200e-17
8911.4900	7.4827400e-17
8914.1200	7.9019400e-17
8916.7400	7.8527800e-17
8919.3900	6.9631800e-17
8923.0500	7.1094400e-17
8925.6200	7.0516400e-17
8928.1800	7.0112000e-17
8930.7400	7.6406000e-17
8933.8400	7.4165400e-17
8936.4900	7.3963600e-17
8939.1200	6.1248000e-17
8941.7500	4.0212600e-17
8944.3800	3.1401800e-17
8947.0100	6.2921400e-17
8949.6900	7.1231200e-17
8953.2800	7.4859200e-17
8955.8500	8.6089400e-17
8958.4100	8.9449400e-17
8960.9800	8.6815400e-17
8964.1300	7.1990000e-17
8966.7600	8.5216000e-17
8969.4000	8.2262200e-17
8972.0300	7.4996200e-17
8974.6600	8.5791000e-17
8977.2800	1.0209000e-16
8980.9600	8.8224800e-17
8983.5200	9.4335200e-17
8986.0900	8.9716600e-17
8988.6500	8.5450000e-17
8991.7300	8.9876200e-17
8994.3900	1.0568500e-16
8997.0400	9.7545600e-17
8999.6800	8.8939600e-17
9002.3000	9.4369000e-17
9004.9400	9.2885600e-17
9007.5600	9.4539800e-17
9011.1800	1.1072000e-16
9013.7600	1.0507800e-16
9016.3300	1.0507800e-16
9018.8900	1.0997200e-16
9022.0100	1.0687900e-16
9024.6500	1.0360500e-16
9027.3000	1.1178700e-16
9029.9600	1.0661200e-16
9032.5900	1.0794800e-16
9035.2200	1.1210600e-16
9038.8000	1.2117300e-16
9041.3600	1.2096000e-16
9043.9300	1.2160000e-16
9046.5200	1.1946600e-16
9049.6800	1.2693300e-16
9052.3100	1.2309300e-16
9054.9300	1.1445300e-16
9057.5600	1.2437400e-16
9060.1900	1.2277500e-16
9062.8300	1.1221300e-16
9066.4300	1.2501400e-16
9069.0300	1.2192000e-16
9071.6100	1.1584100e-16
9074.1800	1.2373200e-16
9077.2800	1.2096100e-16
9079.9200	1.1594600e-16
9082.5400	1.2234600e-16
9085.1800	1.2181400e-16
9087.8100	1.1733400e-16
9090.4700	1.3621300e-16
9094.0700	1.2618800e-16
9096.6500	1.3013300e-16
9099.2200	1.3258600e-16
9101.7800	1.4442600e-16
9104.9000	1.2128000e-16
9107.5300	1.1616100e-16
9110.1600	1.3568000e-16
9112.8000	1.4762700e-16
9115.4200	1.3632100e-16
9118.0800	1.2959900e-16
9121.6600	1.4997200e-16
9124.2500	1.5456000e-16
9126.8300	1.4272000e-16
9129.3900	1.2799900e-16
9132.5100	1.2991900e-16
9135.1500	1.2373300e-16
9137.7800	1.3109400e-16
9140.4100	1.4997300e-16
9143.0500	1.4943900e-16
9146.6600	1.6266800e-16
9149.2300	1.5413300e-16
9151.7900	1.3418600e-16
9154.3600	1.3194600e-16
9157.4800	1.4048000e-16
9160.1100	1.5189300e-16
9162.7400	1.4688000e-16
9165.3800	1.5146600e-16
9168.0000	1.4922600e-16
9170.6700	1.3855900e-16
9174.2700	1.2608000e-16
9176.8400	1.4602700e-16
9179.4100	1.5317300e-16
9181.9700	1.6224000e-16
9185.0800	1.4997300e-16
9187.7000	1.5615900e-16
9190.3400	1.6362600e-16
9192.9700	1.4880000e-16
9195.6000	1.3568000e-16
9198.2400	1.5882700e-16
9201.8100	1.9690700e-16
9204.3800	1.8965400e-16
9206.9400	1.7375900e-16
9210.0200	1.7066800e-16
9212.6400	1.7055900e-16
9215.2800	1.6768000e-16
9217.9100	1.6149300e-16
9220.5400	1.8602600e-16
9223.1700	1.8805400e-16
9226.7800	2.0405400e-16
9229.3200	1.9637400e-16
9231.8700	1.8943900e-16
9234.4400	1.8805300e-16
9237.5600	1.5648000e-16
9240.1900	1.4805400e-16
9242.8300	1.7216000e-16
9245.4600	1.6928000e-16
9248.0600	1.6928100e-16
9251.6700	1.8207900e-16
9254.2400	1.8111900e-16
9256.8100	1.7141400e-16
9259.3700	1.5818600e-16
9262.4800	1.1861300e-16
9265.1100	1.2330800e-16
9267.7400	1.2693300e-16
9270.3700	1.1626700e-16
9273.0100	8.2517800e-17
9276.6100	5.8752800e-17
9279.1700	4.3359600e-17
9281.7200	5.3429800e-17
9284.2700	6.2006400e-17
9287.3700	5.9734400e-17
9290.0000	5.5520000e-17
9292.6400	6.2538600e-17
9295.2700	6.2975400e-17
9297.9000	7.2223600e-17
9301.5000	7.5850200e-17
9304.0500	9.6329600e-17
9306.6000	9.5115200e-17
9309.1600	9.5840800e-17
9312.2600	1.1562700e-16
9314.8900	8.0362200e-17
9317.5000	7.0314400e-17
9320.1300	7.2148800e-17
9322.7600	5.0452200e-17
9326.3600	8.7189200e-17
9328.9300	1.1050600e-16
9331.4900	1.1274700e-16
9334.0400	8.0489600e-17
9337.1200	5.9530800e-17
9339.7300	9.9871000e-17
9342.3600	1.0192100e-16
9345.0000	6.9931000e-17
9347.6000	1.2597300e-16
9351.1900	1.1541200e-16
9353.7400	1.0500300e-16
9356.3100	1.3045400e-16
9358.8500	1.3482700e-16
9361.9600	1.2767900e-16
9364.5700	1.1093400e-16
9367.2000	1.1424100e-16
9369.8300	1.1424100e-16
9372.4400	1.3439900e-16
9376.0100	1.4528100e-16
9378.5600	1.2800100e-16
9381.1100	1.4912100e-16
9384.1700	1.2415900e-16
9386.7800	1.3802700e-16
9389.4100	1.5978700e-16
9392.0200	1.7408000e-16
9394.6400	1.6362700e-16
9398.2500	1.8592000e-16
9400.7900	1.8709400e-16
9403.3500	1.8240100e-16
9405.8900	1.8997200e-16
9408.9800	1.5392000e-16
9411.5900	1.6416000e-16
9414.2000	1.6746600e-16
9416.8200	1.7397400e-16
9419.4400	1.6245300e-16
9423.0100	1.8677300e-16
9425.5400	1.7973300e-16
9428.0900	1.4293400e-16
9431.1300	1.7013400e-16
9433.7400	1.9968000e-16
9436.3700	2.0245200e-16
9438.9800	1.0730600e-16
9441.5800	1.2885300e-16
9445.1800	1.5786800e-16
9447.7100	2.0789400e-16
9450.2600	2.2357400e-16
9452.8000	2.0341200e-16
9455.8900	1.2224100e-16
9458.5000	1.6000100e-16
9461.1300	1.5317300e-16
9463.7300	1.7685400e-16
9467.3200	1.5733300e-16
9469.8700	1.7162700e-16
9472.4100	1.9082600e-16
9474.9400	1.6330700e-16
9478.0100	1.3024000e-16
9480.6200	1.6554600e-16
9483.2200	1.9669400e-16
9485.8600	1.8346700e-16
9489.4500	2.4458800e-16
9491.9900	2.0874600e-16
9494.5100	1.4453300e-16
9497.0400	1.4079900e-16
9500.1100	1.5807900e-16
9502.7100	1.7984000e-16
9505.3500	1.8762700e-16
9507.9300	1.9082600e-16
9511.5600	2.2698600e-16
9514.0800	1.7845300e-16
9516.6100	1.3237400e-16
9519.1400	1.4314600e-16
9522.2100	1.6810600e-16
9524.8100	1.8474700e-16
9527.4200	1.8880100e-16
9530.0200	1.9882600e-16
9533.6100	2.0906600e-16
9536.1200	2.2485400e-16
9538.6600	2.4064000e-16
9541.1700	2.2805400e-16
9544.2500	1.6565300e-16
9546.8500	2.1066600e-16
9549.4600	2.0693400e-16
9552.0600	1.2704000e-16
9555.6300	1.3770700e-16
9558.1300	1.7578600e-16
9560.6800	2.1493400e-16
9563.1900	1.5530800e-16
9566.2800	1.2490600e-16
9568.8900	1.3685300e-16
9571.4700	1.7504100e-16
9574.1000	2.1920000e-16
9577.6100	2.3861400e-16
9580.1400	1.8463900e-16
9582.6400	1.9573300e-16
9585.6900	1.7280000e-16
9588.2900	1.0144100e-16
9590.8700	1.0730700e-16
9593.5000	1.4645300e-16
9597.0400	2.0149400e-16
9599.5800	2.2730800e-16
9602.0900	2.2752000e-16
9604.5800	2.1877400e-16
9607.7000	1.5658700e-16
9610.2700	1.7599900e-16
9612.8500	1.9605200e-16
9615.4600	1.1690600e-16
9618.9800	1.8783900e-16
9621.4900	2.1013200e-16
9624.0200	2.0224000e-16
9627.0500	2.4970600e-16
9629.6200	2.4533200e-16
9632.2200	2.9749400e-16
9634.8300	1.8794600e-16
9638.3500	1.5616100e-16
9640.8700	1.6896000e-16
9643.3900	2.1397200e-16
9645.8900	2.4480000e-16
9648.9700	2.2944000e-16
9651.5500	1.9978700e-16
9654.1500	1.9562800e-16
9657.7300	2.6485400e-16
9660.2100	2.6976000e-16
9662.7000	2.2144000e-16
9665.2200	1.7429300e-16
9668.3100	1.7130600e-16
9670.8900	2.7338600e-16
9673.4600	3.4421200e-16
9677.0200	3.3536000e-16
9679.5100	2.5301400e-16
9682.0200	2.6208000e-16
9684.5500	2.9824000e-16
9687.6000	2.2965200e-16
9690.1800	2.1130600e-16
9692.7500	1.7994600e-16
9696.3100	2.1269200e-16
9698.8000	2.7498600e-16
9701.2900	3.3322600e-16
9703.7800	3.3248000e-16
9706.8400	2.7392000e-16
9709.4400	2.6176000e-16
9712.0400	2.5098600e-16
9715.6100	2.8032000e-16
9718.0900	2.8362600e-16
9720.5800	2.5002800e-16
9723.0700	2.2762600e-16
9726.1100	2.2517400e-16
9728.6900	2.5408000e-16
9731.2700	3.1274800e-16
9733.8400	3.0976000e-16
9737.0400	2.3722600e-16
9739.7900	2.5120000e-16
9742.5400	2.3296000e-16
9745.2900	2.4544000e-16
9748.0400	2.4512000e-16
9750.7900	2.0181400e-16
9753.5400	1.9199900e-16
9756.2900	2.1802800e-16
9759.0400	2.4256000e-16
9761.7900	2.5130600e-16
9764.5300	2.7829400e-16
9767.2800	3.0517200e-16
9770.0300	3.3056000e-16
9772.7800	2.6101200e-16
9775.5300	2.4501400e-16
9778.2800	2.4010800e-16
9781.0300	2.2880000e-16
9783.7800	2.7114600e-16
9786.5300	2.8224000e-16
9789.2800	2.7210600e-16
9792.0100	2.1365400e-16
9794.7600	2.7552000e-16
9797.5100	2.7477400e-16
9800.2600	2.4352200e-16
9803.0100	2.4384000e-16
9805.7600	2.6474600e-16
9808.5000	2.7168000e-16
9811.2400	2.4661400e-16
9813.9900	1.9946800e-16
9816.7400	2.4629200e-16
9819.4900	3.0208000e-16
9822.2200	2.8437400e-16
9824.9700	2.9109200e-16
9827.7200	3.3962800e-16
9830.4700	3.1253200e-16
9833.2100	2.8554600e-16
9835.9600	2.9632000e-16
9838.6900	3.5722600e-16
9841.4400	3.0005400e-16
9844.1900	2.6549200e-16
9846.9200	2.4992200e-16
9849.6700	2.8725400e-16
9852.4200	2.8896000e-16
9855.1500	3.3696200e-16
9857.9000	2.9770600e-16
9860.6500	3.1328000e-16
9863.3800	3.4165400e-16
9866.1200	3.2373400e-16
9868.8700	2.0437200e-16
9871.6100	1.3386700e-16
9874.3500	3.3184000e-16
9877.1000	3.2106800e-16
9879.8300	3.1584000e-16
9882.5800	3.4474600e-16
9885.3100	3.5040000e-16
9888.0600	3.5722600e-16
9890.7900	3.2202800e-16
9893.5300	3.0730600e-16
9896.2800	3.4410800e-16
9899.0100	3.7653200e-16
9901.7600	3.8538600e-16
9904.4900	3.8325400e-16
9907.2400	3.6160000e-16
9909.9700	3.5328000e-16
9912.7100	3.1093200e-16
9915.4500	3.3866600e-16
9918.1900	3.4506600e-16
9920.9200	3.4250600e-16
9923.6600	3.7344000e-16
9926.4000	3.3781200e-16
9929.1300	3.0816000e-16
9931.8800	3.3536000e-16
9934.6100	3.2309400e-16
9937.3500	3.3525400e-16
9940.0800	3.3237400e-16
9942.8200	4.0245400e-16
9945.5500	3.7610600e-16
9948.2900	4.1482800e-16
9951.0300	3.7728000e-16
9953.7600	3.2351800e-16
9956.4900	3.5317200e-16
9959.2300	4.4362600e-16
9961.9600	4.1600000e-16
9964.7000	3.8144000e-16
9967.4300	3.8496000e-16
9970.1700	3.9242600e-16
9972.9000	4.2122600e-16
9975.6300	4.2911800e-16
9978.3600	3.7952000e-16
9981.1000	3.7216000e-16
9983.8300	4.0480000e-16
9986.5600	3.8826600e-16
9989.2900	3.7792000e-16
9992.0200	4.3104000e-16
