#LAM	TRANSMISSION
17.141	0.0001
17.147	0.0001
17.153	0.0001
17.159	0.0001
17.165	0.0001
17.17	0.0001
17.176	0.0001
17.182	0.0001
17.188	0.0001
17.194	0.0002
17.199	0.0002
17.205	0.0002
17.211	0.0002
17.217	0.0002
17.223	0.0002
17.228	0.0002
17.234	0.0003
17.24	0.0003
17.246	0.0003
17.252	0.0003
17.257	0.0003
17.263	0.0003
17.269	0.0003
17.275	0.0003
17.281	0.0004
17.286	0.0004
17.292	0.0004
17.298	0.0004
17.304	0.0004
17.31	0.0003
17.315	0.0003
17.321	0.0003
17.327	0.0003
17.333	0.0003
17.339	0.0003
17.344	0.0003
17.35	0.0003
17.356	0.0003
17.362	0.0003
17.368	0.0003
17.373	0.0003
17.379	0.0003
17.385	0.0003
17.391	0.0003
17.397	0.0002
17.402	0.0002
17.408	0.0002
17.414	0.0002
17.42	0.0002
17.426	0.0002
17.431	0.0002
17.437	0.0002
17.443	0.0002
17.449	0.0002
17.455	0.0002
17.46	0.0002
17.466	0.0003
17.472	0.0003
17.478	0.0003
17.484	0.0003
17.489	0.0003
17.495	0.0003
17.501	0.0003
17.507	0.0003
17.513	0.0003
17.518	0.0004
17.524	0.0004
17.53	0.0004
17.536	0.0004
17.542	0.0005
17.547	0.0005
17.553	0.0005
17.559	0.0006
17.565	0.0006
17.571	0.0007
17.576	0.0007
17.582	0.0008
17.588	0.0008
17.594	0.0008
17.6	0.0009
17.605	0.0009
17.611	0.001
17.617	0.001
17.623	0.0011
17.629	0.0011
17.634	0.0012
17.64	0.0012
17.646	0.0012
17.652	0.0013
17.658	0.0013
17.663	0.0013
17.669	0.0014
17.675	0.0014
17.681	0.0014
17.687	0.0014
17.692	0.0014
17.698	0.0015
17.704	0.0015
17.71	0.0015
17.716	0.0015
17.721	0.0015
17.727	0.0016
17.733	0.0016
17.739	0.0016
17.745	0.0016
17.75	0.0017
17.756	0.0017
17.762	0.0017
17.768	0.0017
17.774	0.0018
17.779	0.0018
17.785	0.0019
17.791	0.0019
17.797	0.002
17.803	0.002
17.808	0.0021
17.814	0.0022
17.82	0.0022
17.826	0.0023
17.832	0.0024
17.837	0.0025
17.843	0.0025
17.849	0.0026
17.855	0.0027
17.861	0.0028
17.866	0.003
17.872	0.0031
17.878	0.0032
17.884	0.0033
17.89	0.0034
17.895	0.0036
17.901	0.0037
17.907	0.0038
17.913	0.004
17.919	0.0041
17.924	0.0043
17.93	0.0044
17.936	0.0046
17.942	0.0047
17.948	0.0049
17.953	0.0051
17.959	0.0052
17.965	0.0054
17.971	0.0056
17.977	0.0058
17.982	0.006
17.988	0.0062
17.994	0.0064
18.0	0.0067
18.006	0.0069
18.011	0.0072
18.017	0.0074
18.023	0.0077
18.029	0.008
18.035	0.0083
18.04	0.0086
18.046	0.0089
18.052	0.0092
18.058	0.0096
18.064	0.0099
18.069	0.0103
18.075	0.0107
18.081	0.0111
18.087	0.0116
18.093	0.0121
18.098	0.0126
18.104	0.0131
18.11	0.0136
18.116	0.0142
18.122	0.0148
18.127	0.0154
18.133	0.0161
18.139	0.0167
18.145	0.0175
18.151	0.0182
18.156	0.019
18.162	0.0198
18.168	0.0207
18.174	0.0216
18.18	0.0224
18.185	0.0235
18.191	0.0245
18.197	0.0255
18.203	0.0266
18.209	0.0278
18.214	0.029
18.22	0.0302
18.226	0.0316
18.232	0.0329
18.238	0.0343
18.243	0.0358
18.249	0.0373
18.255	0.0389
18.261	0.0405
18.267	0.0423
18.272	0.044
18.278	0.0458
18.284	0.0478
18.29	0.0498
18.296	0.0518
18.301	0.0539
18.307	0.0561
18.313	0.0584
18.319	0.0607
18.325	0.0632
18.33	0.0658
18.336	0.0684
18.342	0.071
18.348	0.0739
18.354	0.0768
18.359	0.0797
18.365	0.0828
18.371	0.086
18.377	0.0893
18.383	0.0926
18.388	0.0961
18.394	0.0996
18.4	0.1031
18.406	0.107
18.412	0.1108
18.417	0.1146
18.423	0.1186
18.429	0.1226
18.435	0.1267
18.441	0.1308
18.446	0.1351
18.452	0.1394
18.458	0.1437
18.464	0.1481
18.47	0.1525
18.475	0.157
18.481	0.1614
18.487	0.166
18.493	0.1705
18.499	0.175
18.504	0.1795
18.51	0.184
18.516	0.1884
18.522	0.1928
18.528	0.1972
18.533	0.2015
18.539	0.2058
18.545	0.2101
18.551	0.2143
18.557	0.2185
18.562	0.2227
18.568	0.2267
18.574	0.2306
18.58	0.2346
18.586	0.2383
18.591	0.242
18.597	0.2458
18.603	0.2493
18.609	0.2526
18.615	0.256
18.62	0.2593
18.626	0.2623
18.632	0.2653
18.638	0.2683
18.644	0.2711
18.649	0.2737
18.655	0.2763
18.661	0.2789
18.667	0.2811
18.673	0.2833
18.678	0.2856
18.684	0.2876
18.69	0.2894
18.696	0.2913
18.702	0.2931
18.707	0.2946
18.713	0.2961
18.719	0.2977
18.725	0.299
18.731	0.3002
18.736	0.3014
18.742	0.3025
18.748	0.3034
18.754	0.3043
18.76	0.3053
18.765	0.3059
18.771	0.3066
18.777	0.3073
18.783	0.3078
18.789	0.3082
18.794	0.3086
18.8	0.309
18.806	0.3093
18.812	0.3095
18.818	0.3097
18.823	0.3098
18.829	0.3099
18.835	0.3099
18.841	0.3099
18.847	0.3099
18.852	0.3098
18.858	0.3098
18.864	0.3096
18.87	0.3095
18.876	0.3093
18.881	0.3092
18.887	0.309
18.893	0.3089
18.899	0.3087
18.905	0.3086
18.91	0.3084
18.916	0.3082
18.922	0.3081
18.928	0.3079
18.934	0.3078
18.939	0.3076
18.945	0.3075
18.951	0.3074
18.957	0.3073
18.963	0.3072
18.968	0.3071
18.974	0.307
18.98	0.3068
18.986	0.3067
18.992	0.3066
18.997	0.3065
19.003	0.3065
19.009	0.3065
19.015	0.3065
19.021	0.3065
19.026	0.3065
19.032	0.3065
19.038	0.3065
19.044	0.3064
19.05	0.3063
19.055	0.3063
19.061	0.3062
19.067	0.306
19.073	0.3059
19.079	0.3058
19.084	0.3056
19.09	0.3054
19.096	0.3052
19.102	0.305
19.108	0.3047
19.113	0.3045
19.119	0.3043
19.125	0.304
19.131	0.3037
19.137	0.3035
19.142	0.3032
19.148	0.3029
19.154	0.3027
19.16	0.3024
19.166	0.3021
19.171	0.3018
19.177	0.3016
19.183	0.3013
19.189	0.3011
19.195	0.3008
19.2	0.3006
19.206	0.3004
19.212	0.3002
19.218	0.3
19.224	0.2998
19.229	0.2996
19.235	0.2995
19.241	0.2993
19.247	0.2992
19.253	0.299
19.258	0.2989
19.264	0.2988
19.27	0.2987
19.276	0.2986
19.282	0.2985
19.287	0.2984
19.293	0.2983
19.299	0.2983
19.305	0.2982
19.311	0.2981
19.316	0.298
19.322	0.2979
19.328	0.2978
19.334	0.2978
19.34	0.2977
19.345	0.2975
19.351	0.2974
19.357	0.2973
19.363	0.2972
19.369	0.2971
19.374	0.2969
19.38	0.2968
19.386	0.2966
19.392	0.2964
19.398	0.2962
19.403	0.296
19.409	0.2958
19.415	0.2956
19.421	0.2954
19.427	0.2952
19.432	0.2949
19.438	0.2947
19.444	0.2945
19.45	0.2942
19.456	0.294
19.461	0.2937
19.467	0.2934
19.473	0.2932
19.479	0.2929
19.485	0.2927
19.49	0.2924
19.496	0.2922
19.502	0.292
19.508	0.2919
19.514	0.2918
19.519	0.2917
19.525	0.2916
19.531	0.2915
19.537	0.2914
19.543	0.2913
19.548	0.2913
19.554	0.2912
19.56	0.2911
19.566	0.2911
19.572	0.291
19.577	0.291
19.583	0.2909
19.589	0.2909
19.595	0.2908
19.601	0.2908
19.606	0.2908
19.612	0.2908
19.618	0.2908
19.624	0.2908
19.63	0.2908
19.635	0.2908
19.641	0.2908
19.647	0.2908
19.653	0.2909
19.659	0.2909
19.664	0.2909
19.67	0.291
19.676	0.291
19.682	0.291
19.688	0.2911
19.693	0.2911
19.699	0.2912
19.705	0.2912
19.711	0.2913
19.717	0.2913
19.722	0.2914
19.728	0.2915
19.734	0.2915
19.74	0.2916
19.746	0.2917
19.751	0.2917
19.757	0.2918
19.763	0.2919
19.769	0.292
19.775	0.2921
19.78	0.2923
19.786	0.2924
19.792	0.2926
19.798	0.2927
19.804	0.2929
19.809	0.2931
19.815	0.2933
19.821	0.2936
19.827	0.2938
19.833	0.2941
19.838	0.2943
19.844	0.2946
19.85	0.2949
19.856	0.2952
19.862	0.2955
19.867	0.2959
19.873	0.2962
19.879	0.2965
19.885	0.2969
19.891	0.2973
19.896	0.2976
19.902	0.298
19.908	0.2983
19.914	0.2987
19.92	0.299
19.925	0.2994
19.931	0.2997
19.937	0.3
19.943	0.3004
19.949	0.3007
19.954	0.301
19.96	0.3013
19.966	0.3016
19.972	0.3019
19.978	0.3022
19.983	0.3024
19.989	0.3027
19.995	0.303
20.001	0.3032
20.007	0.3035
20.012	0.3037
20.018	0.304
20.024	0.3042
20.03	0.3044
20.036	0.3046
20.041	0.3049
20.047	0.3051
20.053	0.3053
20.059	0.3055
20.065	0.3057
20.07	0.3059
20.076	0.3061
20.082	0.3063
20.088	0.3065
20.094	0.3067
20.099	0.3069
20.105	0.3071
20.111	0.3073
20.117	0.3075
20.123	0.3076
20.128	0.3078
20.134	0.308
20.14	0.3081
20.146	0.3083
20.152	0.3085
20.157	0.3086
20.163	0.3088
20.169	0.3089
20.175	0.3091
20.181	0.3092
20.186	0.3094
20.192	0.3095
20.198	0.3097
20.204	0.3099
20.21	0.31
20.215	0.3102
20.221	0.3104
20.227	0.3105
20.233	0.3107
20.239	0.3109
20.244	0.3111
20.25	0.3113
20.256	0.3115
20.262	0.3117
20.268	0.3119
20.273	0.3121
20.279	0.3123
20.285	0.3125
20.291	0.3127
20.297	0.3129
20.302	0.3131
20.308	0.3133
20.314	0.3135
20.32	0.3137
20.326	0.3139
20.331	0.3141
20.337	0.3142
20.343	0.3144
20.349	0.3146
20.355	0.3148
20.36	0.3149
20.366	0.3151
20.372	0.3152
20.378	0.3153
20.384	0.3155
20.389	0.3156
20.395	0.3157
20.401	0.3158
20.407	0.3159
20.413	0.3159
20.418	0.316
20.424	0.3161
20.43	0.3161
20.436	0.3162
20.442	0.3162
20.447	0.3163
20.453	0.3163
20.459	0.3164
20.465	0.3164
20.471	0.3164
20.476	0.3164
20.482	0.3164
20.488	0.3165
20.494	0.3165
20.5	0.3165
20.505	0.3162
20.511	0.3159
20.517	0.3157
20.523	0.3154
20.529	0.3151
20.534	0.3149
20.54	0.3146
20.546	0.3143
20.552	0.3141
20.558	0.3138
20.563	0.3135
20.569	0.3133
20.575	0.313
20.581	0.3128
20.587	0.3125
20.592	0.3123
20.598	0.3121
20.604	0.3118
20.61	0.3116
20.616	0.3114
20.621	0.3111
20.627	0.3109
20.633	0.3107
20.639	0.3105
20.645	0.3103
20.65	0.31
20.656	0.3098
20.662	0.3096
20.668	0.3094
20.674	0.3092
20.679	0.3089
20.685	0.3087
20.691	0.3085
20.697	0.3082
20.703	0.308
20.708	0.3078
20.714	0.3075
20.72	0.3073
20.726	0.307
20.732	0.3067
20.737	0.3065
20.743	0.3062
20.749	0.3059
20.755	0.3057
20.761	0.3054
20.766	0.3051
20.772	0.3048
20.778	0.3045
20.784	0.3042
20.79	0.3038
20.795	0.3035
20.801	0.3032
20.807	0.3029
20.813	0.3025
20.819	0.3022
20.824	0.3018
20.83	0.3015
20.836	0.3011
20.842	0.3008
20.848	0.3004
20.853	0.3
20.859	0.2997
20.865	0.2993
20.871	0.2989
20.877	0.2985
20.882	0.2982
20.888	0.2978
20.894	0.2974
20.9	0.297
20.906	0.2966
20.911	0.2962
20.917	0.2958
20.923	0.2953
20.929	0.2949
20.935	0.2945
20.94	0.2941
20.946	0.2936
20.952	0.2932
20.958	0.2928
20.964	0.2924
20.969	0.2919
20.975	0.2915
20.981	0.291
20.987	0.2906
20.993	0.2902
20.998	0.2897
21.004	0.2896
21.01	0.2896
21.016	0.2896
21.022	0.2896
21.027	0.2896
21.033	0.2897
21.039	0.2897
21.045	0.2897
21.051	0.2898
21.056	0.2899
21.062	0.29
21.068	0.2901
21.074	0.2902
21.08	0.2904
21.085	0.2905
21.091	0.2907
21.097	0.2909
21.103	0.2911
21.109	0.2913
21.114	0.2916
21.12	0.2918
21.126	0.2921
21.132	0.2923
21.138	0.2926
21.143	0.2929
21.149	0.2932
21.155	0.2935
21.161	0.2937
21.167	0.294
21.172	0.2943
21.178	0.2946
21.184	0.2949
21.19	0.2952
21.196	0.2955
21.201	0.2958
21.207	0.2961
21.213	0.2964
21.219	0.2967
21.225	0.2969
21.23	0.2972
21.236	0.2975
21.242	0.2978
21.248	0.2981
21.254	0.2983
21.259	0.2986
21.265	0.2989
21.271	0.2992
21.277	0.2994
21.283	0.2997
21.288	0.3
21.294	0.3003
21.3	0.3006
21.306	0.3009
21.312	0.3012
21.317	0.3015
21.323	0.3018
21.329	0.3022
21.335	0.3025
21.341	0.3028
21.346	0.3031
21.352	0.3035
21.358	0.3038
21.364	0.3041
21.37	0.3044
21.375	0.3048
21.381	0.3051
21.387	0.3054
21.393	0.3058
21.399	0.3061
21.404	0.3064
21.41	0.3067
21.416	0.307
21.422	0.3074
21.428	0.3077
21.433	0.308
21.439	0.3083
21.445	0.3086
21.451	0.3088
21.457	0.3091
21.462	0.3094
21.468	0.3097
21.474	0.31
21.48	0.3102
21.486	0.3105
21.491	0.3107
21.497	0.311
21.503	0.3111
21.509	0.3112
21.515	0.3112
21.52	0.3112
21.526	0.3112
21.532	0.3112
21.538	0.3113
21.544	0.3113
21.549	0.3113
21.555	0.3112
21.561	0.3112
21.567	0.3112
21.573	0.3112
21.578	0.3112
21.584	0.3111
21.59	0.3111
21.596	0.311
21.602	0.3109
21.607	0.3109
21.613	0.3108
21.619	0.3107
21.625	0.3106
21.631	0.3105
21.636	0.3104
21.642	0.3103
21.648	0.3102
21.654	0.3101
21.66	0.3101
21.665	0.3099
21.671	0.3098
21.677	0.3097
21.683	0.3096
21.689	0.3095
21.694	0.3095
21.7	0.3094
21.706	0.3093
21.712	0.3092
21.718	0.3092
21.723	0.3091
21.729	0.3091
21.735	0.3091
21.741	0.3091
21.747	0.3091
21.752	0.3091
21.758	0.3091
21.764	0.3092
21.77	0.3092
21.776	0.3093
21.781	0.3094
21.787	0.3095
21.793	0.3096
21.799	0.3097
21.805	0.3098
21.81	0.3099
21.816	0.31
21.822	0.3102
21.828	0.3103
21.834	0.3104
21.839	0.3106
21.845	0.3107
21.851	0.3108
21.857	0.3109
21.863	0.311
21.868	0.3112
21.874	0.3113
21.88	0.3114
21.886	0.3114
21.892	0.3115
21.897	0.3116
21.903	0.3116
21.909	0.3117
21.915	0.3117
21.921	0.3118
21.926	0.3118
21.932	0.3118
21.938	0.3118
21.944	0.3118
21.95	0.3118
21.955	0.3117
21.961	0.3117
21.967	0.3117
21.973	0.3116
21.979	0.3116
21.984	0.3116
21.99	0.3115
21.996	0.3115
22.002	0.3114
22.008	0.3113
22.013	0.3111
22.019	0.311
22.025	0.3109
22.031	0.3107
22.037	0.3106
22.042	0.3105
22.048	0.3103
22.054	0.3102
22.06	0.3101
22.066	0.31
22.071	0.3098
22.077	0.3097
22.083	0.3095
22.089	0.3094
22.095	0.3092
22.1	0.3091
22.106	0.3089
22.112	0.3088
22.118	0.3086
22.124	0.3084
22.129	0.3082
22.135	0.3081
22.141	0.3079
22.147	0.3077
22.153	0.3075
22.158	0.3073
22.164	0.3071
22.17	0.3069
22.176	0.3066
22.182	0.3064
22.187	0.3062
22.193	0.306
22.199	0.3058
22.205	0.3055
22.211	0.3053
22.216	0.3051
22.222	0.3048
22.228	0.3046
22.234	0.3044
22.24	0.3041
22.245	0.3039
22.251	0.3037
22.257	0.3035
22.263	0.3032
22.269	0.303
22.274	0.3028
22.28	0.3026
22.286	0.3024
22.292	0.3022
22.298	0.302
22.303	0.3018
22.309	0.3016
22.315	0.3014
22.321	0.3012
22.327	0.3011
22.332	0.3009
22.338	0.3007
22.344	0.3005
22.35	0.3004
22.356	0.3002
22.361	0.3
22.367	0.2999
22.373	0.2997
22.379	0.2995
22.385	0.2994
22.39	0.2992
22.396	0.2991
22.402	0.2989
22.408	0.2988
22.414	0.2986
22.419	0.2985
22.425	0.2984
22.431	0.2982
22.437	0.2981
22.443	0.298
22.448	0.2978
22.454	0.2977
22.46	0.2976
22.466	0.2975
22.472	0.2974
22.477	0.2972
22.483	0.2971
22.489	0.297
22.495	0.297
22.501	0.2969
22.506	0.2968
22.512	0.2967
22.518	0.2966
22.524	0.2965
22.53	0.2965
22.535	0.2964
22.541	0.2963
22.547	0.2962
22.553	0.2962
22.559	0.2961
22.564	0.2961
22.57	0.296
22.576	0.2959
22.582	0.2958
22.588	0.2958
22.593	0.2957
22.599	0.2956
22.605	0.2955
22.611	0.2954
22.617	0.2953
22.622	0.2951
22.628	0.295
22.634	0.2948
22.64	0.2947
22.646	0.2945
22.651	0.2942
22.657	0.294
22.663	0.2938
22.669	0.2935
22.675	0.2933
22.68	0.293
22.686	0.2926
22.692	0.2922
22.698	0.2919
22.704	0.2915
22.709	0.291
22.715	0.2906
22.721	0.2901
22.727	0.2895
22.733	0.289
22.738	0.2884
22.744	0.2878
22.75	0.2871
22.756	0.2864
22.762	0.2857
22.767	0.2849
22.773	0.2841
22.779	0.2833
22.785	0.2824
22.791	0.2815
22.796	0.2806
22.802	0.2797
22.808	0.2786
22.814	0.2776
22.82	0.2766
22.825	0.2754
22.831	0.2742
22.837	0.2731
22.843	0.2719
22.849	0.2706
22.854	0.2693
22.86	0.268
22.866	0.2666
22.872	0.2652
22.878	0.2639
22.883	0.2624
22.889	0.2609
22.895	0.2594
22.901	0.2578
22.907	0.2562
22.912	0.2546
22.918	0.2529
22.924	0.2512
22.93	0.2495
22.936	0.2477
22.941	0.2459
22.947	0.2441
22.953	0.2422
22.959	0.2404
22.965	0.2384
22.97	0.2364
22.976	0.2344
22.982	0.2324
22.988	0.2303
22.994	0.2282
22.999	0.2261
23.005	0.2239
23.011	0.2216
23.017	0.2194
23.023	0.2171
23.028	0.2147
23.034	0.2123
23.04	0.21
23.046	0.2075
23.052	0.2051
23.057	0.2027
23.063	0.2002
23.069	0.1977
23.075	0.1952
23.081	0.1926
23.086	0.1901
23.092	0.1875
23.098	0.185
23.104	0.1824
23.11	0.1798
23.115	0.1773
23.121	0.1747
23.127	0.1721
23.133	0.1695
23.139	0.167
23.144	0.1644
23.15	0.1618
23.156	0.1593
23.162	0.1568
23.168	0.1543
23.173	0.1518
23.179	0.1493
23.185	0.1468
23.191	0.1444
23.197	0.1419
23.202	0.1395
23.208	0.1372
23.214	0.1348
23.22	0.1324
23.226	0.1301
23.231	0.1279
23.237	0.1256
23.243	0.1233
23.249	0.1211
23.255	0.1189
23.26	0.1168
23.266	0.1146
23.272	0.1125
23.278	0.1104
23.284	0.1083
23.289	0.1063
23.295	0.1043
23.301	0.1023
23.307	0.1003
23.313	0.0984
23.318	0.0964
23.324	0.0945
23.33	0.0926
23.336	0.0908
23.342	0.0889
23.347	0.0871
23.353	0.0854
23.359	0.0836
23.365	0.0818
23.371	0.0801
23.376	0.0784
23.382	0.0768
23.388	0.0751
23.394	0.0735
23.4	0.0719
23.405	0.0704
23.411	0.0688
23.417	0.0673
23.423	0.0658
23.429	0.0643
23.434	0.0629
23.44	0.0615
23.446	0.0601
23.452	0.0588
23.458	0.0574
23.463	0.0561
23.469	0.0549
23.475	0.0536
23.481	0.0524
23.487	0.0513
23.492	0.0501
23.498	0.049
23.504	0.0479
23.51	0.0469
23.516	0.0459
23.521	0.0449
23.527	0.044
23.533	0.0431
23.539	0.0422
23.545	0.0413
23.55	0.0405
23.556	0.0396
23.562	0.0389
23.568	0.0381
23.574	0.0374
23.579	0.0367
23.585	0.036
23.591	0.0353
23.597	0.0346
23.603	0.034
23.608	0.0334
23.614	0.0327
23.62	0.0321
23.626	0.0315
23.632	0.031
23.637	0.0304
23.643	0.0298
23.649	0.0293
23.655	0.0287
23.661	0.0282
23.666	0.0276
23.672	0.0271
23.678	0.0265
23.684	0.026
23.69	0.0255
23.695	0.0249
23.701	0.0244
23.707	0.0239
23.713	0.0233
23.719	0.0228
23.724	0.0223
23.73	0.0217
23.736	0.0212
23.742	0.0207
23.748	0.0202
23.753	0.0196
23.759	0.0191
23.765	0.0186
23.771	0.0182
23.777	0.0177
23.782	0.0172
23.788	0.0167
23.794	0.0163
23.8	0.0158
23.806	0.0154
23.811	0.015
23.817	0.0146
23.823	0.0142
23.829	0.0138
23.835	0.0135
23.84	0.0131
23.846	0.0128
23.852	0.0125
23.858	0.0122
23.864	0.0119
23.869	0.0116
23.875	0.0114
23.881	0.0111
23.887	0.0109
23.893	0.0107
23.898	0.0104
23.904	0.0102
23.91	0.01
23.916	0.0099
23.922	0.0097
23.927	0.0095
23.933	0.0093
23.939	0.0092
23.945	0.009
23.951	0.0089
23.956	0.0087
23.962	0.0086
23.968	0.0085
23.974	0.0083
23.98	0.0082
23.985	0.0081
23.991	0.0079
23.997	0.0078
24.003	0.0077
24.009	0.0076
24.014	0.0074
24.02	0.0073
24.026	0.0072
24.032	0.0071
24.038	0.0069
24.043	0.0068
24.049	0.0067
24.055	0.0066
24.061	0.0065
24.067	0.0064
24.072	0.0063
24.078	0.0061
24.084	0.006
24.09	0.0059
24.096	0.0058
24.101	0.0057
24.107	0.0056
24.113	0.0055
24.119	0.0055
24.125	0.0054
24.13	0.0053
24.136	0.0052
24.142	0.0051
24.148	0.005
24.154	0.0049
24.159	0.0049
24.165	0.0048
24.171	0.0047
24.177	0.0047
24.183	0.0046
24.188	0.0045
24.194	0.0045
24.2	0.0044
24.206	0.0044
24.212	0.0043
24.217	0.0043
24.223	0.0042
24.229	0.0042
24.235	0.0041
24.241	0.0041
24.246	0.004
24.252	0.004
24.258	0.0039
24.264	0.0039
24.27	0.0039
24.275	0.0038
24.281	0.0038
24.287	0.0038
24.293	0.0037
24.299	0.0037
24.304	0.0037
24.31	0.0036
24.316	0.0036
24.322	0.0036
24.328	0.0035
24.333	0.0035
24.339	0.0035
24.345	0.0035
24.351	0.0034
24.357	0.0034
24.362	0.0034
24.368	0.0033
24.374	0.0033
24.38	0.0033
24.386	0.0033
24.391	0.0032
24.397	0.0032
24.403	0.0032
24.409	0.0031
24.415	0.0031
24.42	0.0031
24.426	0.003
24.432	0.003
24.438	0.003
24.444	0.003
24.449	0.0029
24.455	0.0029
24.461	0.0029
24.467	0.0028
24.473	0.0028
24.478	0.0028
24.484	0.0027
24.49	0.0027
24.496	0.0027
24.502	0.0026
24.507	0.0026
24.513	0.0026
24.519	0.0026
24.525	0.0025
24.531	0.0025
24.536	0.0025
24.542	0.0024
24.548	0.0024
24.554	0.0024
24.56	0.0023
24.565	0.0023
24.571	0.0022
24.577	0.0022
24.583	0.0022
24.589	0.0021
24.594	0.0021
24.6	0.0021
24.606	0.002
24.612	0.002
24.618	0.002
24.623	0.0019
24.629	0.0019
24.635	0.0019
24.641	0.0018
24.647	0.0018
24.652	0.0017
24.658	0.0017
24.664	0.0017
24.67	0.0016
24.676	0.0016
24.681	0.0015
24.687	0.0015
24.693	0.0015
24.699	0.0014
24.705	0.0014
24.71	0.0014
24.716	0.0013
24.722	0.0013
24.728	0.0012
24.734	0.0012
24.739	0.0012
24.745	0.0011
24.751	0.0011
24.757	0.001
24.763	0.001
24.768	0.0009
24.774	0.0009
24.78	0.0009
24.786	0.0008
24.792	0.0008
24.797	0.0007
24.803	0.0007
24.809	0.0007
24.815	0.0006
24.821	0.0006
24.826	0.0005
24.832	0.0005
24.838	0.0005
24.844	0.0004
24.85	0.0004
24.855	0.0004
24.861	0.0003
24.867	0.0003
24.873	0.0003
24.879	0.0003
24.884	0.0002
24.89	0.0002
24.896	0.0002
24.902	0.0002
24.908	0.0002
24.913	0.0001
24.919	0.0001
24.925	0.0001
24.931	0.0001
24.937	0.0001
24.942	0.0001
24.948	0.0001
24.954	0.0001
24.96	0.0001
24.966	0.0002
24.971	0.0002
24.977	0.0002
24.983	0.0002
24.989	0.0002
24.995	0.0002
25.0	0.0002
25.006	0.0003
25.012	0.0003
25.018	0.0003
25.024	0.0003
25.029	0.0004
25.035	0.0004
25.041	0.0004
25.047	0.0004
25.053	0.0004
25.058	0.0005
25.064	0.0005
25.07	0.0005
25.076	0.0005
25.082	0.0005
25.087	0.0006
25.093	0.0006
25.099	0.0006
25.105	0.0006
25.111	0.0006
25.116	0.0006
25.122	0.0006
25.128	0.0006
25.134	0.0006
25.14	0.0006
25.145	0.0006
25.151	0.0006
25.157	0.0006
25.163	0.0006
25.169	0.0006
25.174	0.0006
25.18	0.0006
25.186	0.0006
25.192	0.0005
25.198	0.0005
25.203	0.0005
25.209	0.0005
25.215	0.0005
25.221	0.0005
25.227	0.0005
25.232	0.0005
25.238	0.0005
25.244	0.0004
25.25	0.0004
25.256	0.0004
25.261	0.0004
25.267	0.0004
25.273	0.0004
25.279	0.0004
25.285	0.0004
25.29	0.0004
25.296	0.0004
25.302	0.0004
25.308	0.0004
25.314	0.0004
25.319	0.0004
25.325	0.0004
25.331	0.0004
25.337	0.0004
25.343	0.0004
25.348	0.0004
25.354	0.0004
25.36	0.0004
25.366	0.0004
25.372	0.0004
25.377	0.0004
25.383	0.0004
25.389	0.0004
25.395	0.0003
25.401	0.0003
25.406	0.0003
25.412	0.0003
25.418	0.0003
25.424	0.0003
25.43	0.0003
25.435	0.0003
25.441	0.0003
25.447	0.0003
25.453	0.0003
25.459	0.0003
25.464	0.0003
25.47	0.0003
25.476	0.0003
25.482	0.0003
25.488	0.0003
25.493	0.0002
25.499	0.0002
25.505	0.0002
25.511	0.0002
25.517	0.0002
25.522	0.0002
25.528	0.0002
25.534	0.0002
25.54	0.0001
25.546	0.0001
25.551	0.0001
25.557	0.0001
25.563	0.0001
25.569	0.0001
25.575	0.0001
