# NIC1 TRANSMISSION PROFILE FOR f110w
# BASED ON nic1_f110w_003.tab FROM ftp://ftp.stsci.edu/cdbs/cdbs2/comp/nicmos
0.760000   0.000117670
0.760500   0.000164150
0.761000   0.000233043
0.761500   0.000305978
0.762000   0.000412624
0.762500   0.000524691
0.763000   0.000684798
0.763500   0.000866401
0.764000   0.00109219
0.764500   0.00129124
0.765000   0.00152998
0.765500   0.00177873
0.766000   0.00199992
0.766500   0.00222093
0.767000   0.00241282
0.767500   0.00259819
0.768000   0.00276969
0.768500   0.00290619
0.769000   0.00305335
0.769500   0.00314328
0.770000   0.00322806
0.770500   0.00335326
0.771000   0.00346220
0.771500   0.00355471
0.772000   0.00363361
0.772500   0.00377030
0.773000   0.00389127
0.773500   0.00405156
0.774000   0.00421489
0.774500   0.00447236
0.775000   0.00471220
0.775500   0.00505722
0.776000   0.00543769
0.776500   0.00587971
0.777000   0.00636739
0.777500   0.00694903
0.778000   0.00758872
0.778500   0.00829401
0.779000   0.00909565
0.779500   0.0100273
0.780000   0.0111239
0.780500   0.0123180
0.781000   0.0137247
0.781500   0.0153286
0.782000   0.0171961
0.782500   0.0193435
0.783000   0.0217624
0.783500   0.0245242
0.784000   0.0276322
0.784500   0.0310882
0.785000   0.0349621
0.785500   0.0392061
0.786000   0.0436850
0.786500   0.0486643
0.787000   0.0538737
0.787500   0.0592333
0.788000   0.0648918
0.788500   0.0702772
0.789000   0.0759827
0.789500   0.0814521
0.790000   0.0868445
0.790500   0.0923060
0.791000   0.0975795
0.791500   0.102851
0.792000   0.108378
0.792500   0.113932
0.793000   0.119909
0.793500   0.126287
0.794000   0.133134
0.794500   0.140801
0.795000   0.149209
0.795500   0.158463
0.796000   0.169172
0.796500   0.180839
0.797000   0.194293
0.797500   0.209528
0.798000   0.226329
0.798500   0.245885
0.799000   0.267033
0.799500   0.291809
0.800000   0.319064
0.800500   0.348078
0.801000   0.380193
0.801500   0.415035
0.802000   0.450099
0.802500   0.487841
0.803000   0.525742
0.803500   0.562317
0.804000   0.598640
0.804500   0.631405
0.805000   0.661405
0.805500   0.687604
0.806000   0.709343
0.806500   0.727222
0.807000   0.741896
0.807500   0.753191
0.808000   0.762469
0.808500   0.770556
0.809000   0.777979
0.809500   0.784947
0.810000   0.791388
0.810500   0.797768
0.811000   0.804143
0.811500   0.810434
0.812000   0.815802
0.812500   0.819362
0.813000   0.821630
0.813500   0.823021
0.814000   0.823610
0.814500   0.822018
0.815000   0.820299
0.815500   0.817570
0.816000   0.813675
0.816500   0.810461
0.817000   0.805716
0.817500   0.800306
0.818000   0.794399
0.818500   0.787055
0.819000   0.779579
0.819500   0.771783
0.820000   0.762352
0.820500   0.752739
0.821000   0.743815
0.821500   0.733990
0.822000   0.724920
0.822500   0.716330
0.823000   0.708375
0.823500   0.702390
0.824000   0.696804
0.824500   0.692880
0.825000   0.690445
0.825500   0.688434
0.826000   0.689061
0.826500   0.690651
0.827000   0.693219
0.827500   0.696542
0.828000   0.701143
0.828500   0.705382
0.829000   0.710085
0.829500   0.714847
0.830000   0.719172
0.830500   0.722515
0.831000   0.726879
0.831500   0.729750
0.832000   0.733376
0.832500   0.736907
0.833000   0.740606
0.833500   0.744686
0.834000   0.749588
0.834500   0.754366
0.835000   0.760200
0.835500   0.765356
0.836000   0.769411
0.836500   0.772913
0.837000   0.773532
0.837500   0.771850
0.838000   0.769574
0.838500   0.763829
0.839000   0.756861
0.839500   0.749133
0.840000   0.741582
0.840500   0.734615
0.841000   0.729019
0.841500   0.724317
0.842000   0.722081
0.842500   0.719922
0.843000   0.718311
0.843500   0.716144
0.844000   0.712292
0.844500   0.705239
0.845000   0.695118
0.845500   0.682015
0.846000   0.665262
0.846500   0.646921
0.847000   0.627269
0.847500   0.607952
0.848000   0.590984
0.848500   0.576809
0.849000   0.567104
0.849500   0.562526
0.850000   0.563285
0.850500   0.569644
0.851000   0.583497
0.851500   0.602186
0.852000   0.625488
0.852500   0.652637
0.853000   0.680533
0.853500   0.708535
0.854000   0.731854
0.854500   0.746792
0.855000   0.754054
0.855500   0.750643
0.856000   0.737489
0.856500   0.717657
0.857000   0.691492
0.857500   0.663447
0.858000   0.635776
0.858500   0.610616
0.859000   0.590161
0.859500   0.573020
0.860000   0.563984
0.860500   0.558383
0.861000   0.558858
0.861500   0.565141
0.862000   0.576033
0.862500   0.589916
0.863000   0.608545
0.863500   0.628828
0.864000   0.651426
0.864500   0.673431
0.865000   0.693452
0.865500   0.713871
0.866000   0.730366
0.866500   0.743655
0.867000   0.754801
0.867500   0.762362
0.868000   0.768904
0.868500   0.774396
0.869000   0.777989
0.869500   0.783839
0.870000   0.789400
0.870500   0.794002
0.871000   0.798325
0.871500   0.805410
0.872000   0.806285
0.872500   0.807073
0.873000   0.802618
0.873500   0.795174
0.874000   0.779289
0.874500   0.754475
0.875000   0.732908
0.875500   0.708959
0.876000   0.683172
0.876500   0.656286
0.877000   0.628864
0.877500   0.603083
0.878000   0.581057
0.878500   0.562242
0.879000   0.546415
0.879500   0.532156
0.880000   0.519916
0.880500   0.509869
0.881000   0.501536
0.881500   0.493650
0.882000   0.486122
0.882500   0.478281
0.883000   0.468501
0.883500   0.456458
0.884000   0.444250
0.884500   0.431806
0.885000   0.418538
0.885500   0.404896
0.886000   0.391748
0.886500   0.379541
0.887000   0.368284
0.887500   0.360620
0.888000   0.354673
0.888500   0.351658
0.889000   0.351055
0.889500   0.354081
0.890000   0.360244
0.890500   0.369180
0.891000   0.380044
0.891500   0.392575
0.892000   0.406910
0.892500   0.421973
0.893000   0.436559
0.893500   0.447209
0.894000   0.454707
0.894500   0.458784
0.895000   0.458074
0.895500   0.453468
0.896000   0.444158
0.896500   0.431801
0.897000   0.418684
0.897500   0.404548
0.898000   0.392267
0.898500   0.381167
0.899000   0.371823
0.899500   0.365504
0.900000   0.363746
0.900500   0.365397
0.901000   0.370756
0.901500   0.380018
0.902000   0.394117
0.902500   0.412500
0.903000   0.434220
0.903500   0.459083
0.904000   0.486895
0.904500   0.519288
0.905000   0.552587
0.905500   0.586832
0.906000   0.619658
0.906500   0.647767
0.907000   0.672753
0.907500   0.693746
0.908000   0.709963
0.908500   0.722535
0.909000   0.729606
0.909500   0.732743
0.910000   0.734729
0.910500   0.735632
0.911000   0.736002
0.911500   0.737738
0.912000   0.740363
0.912500   0.744471
0.913000   0.749288
0.913500   0.755883
0.914000   0.762283
0.914500   0.769952
0.915000   0.778177
0.915500   0.784585
0.916000   0.789335
0.916500   0.794264
0.917000   0.797464
0.917500   0.799090
0.918000   0.799968
0.918500   0.800341
0.919000   0.799768
0.919500   0.799404
0.920000   0.798894
0.920500   0.798149
0.921000   0.797831
0.921500   0.797085
0.922000   0.796139
0.922500   0.795047
0.923000   0.792655
0.923500   0.788472
0.924000   0.782924
0.924500   0.776472
0.925000   0.768389
0.925500   0.759155
0.926000   0.748219
0.926500   0.737491
0.927000   0.725781
0.927500   0.713726
0.928000   0.704321
0.928500   0.694956
0.929000   0.687697
0.929500   0.681911
0.930000   0.677633
0.930500   0.675645
0.931000   0.675762
0.931500   0.677875
0.932000   0.681513
0.932500   0.685870
0.933000   0.692194
0.933500   0.698715
0.934000   0.706215
0.934500   0.713607
0.935000   0.720228
0.935500   0.726380
0.936000   0.732452
0.936500   0.737644
0.937000   0.741717
0.937500   0.745726
0.938000   0.748481
0.938500   0.751260
0.939000   0.754019
0.939500   0.755760
0.940000   0.758017
0.940500   0.760331
0.941000   0.762176
0.941500   0.764090
0.942000   0.766011
0.942500   0.767659
0.943000   0.769290
0.943500   0.770274
0.944000   0.770928
0.944500   0.771952
0.945000   0.771715
0.945500   0.772075
0.946000   0.772052
0.946500   0.772184
0.947000   0.772285
0.947500   0.772731
0.948000   0.773513
0.948500   0.774866
0.949000   0.776612
0.949500   0.778845
0.950000   0.781463
0.950500   0.783295
0.951000   0.785302
0.951500   0.786691
0.952000   0.787450
0.952500   0.787315
0.953000   0.786065
0.953500   0.783581
0.954000   0.780717
0.954500   0.776739
0.955000   0.772596
0.955500   0.768040
0.956000   0.762837
0.956500   0.758582
0.957000   0.755323
0.957500   0.753006
0.958000   0.751865
0.958500   0.752002
0.959000   0.753432
0.959500   0.756757
0.960000   0.760580
0.960500   0.766286
0.961000   0.771786
0.961500   0.778780
0.962000   0.785719
0.962500   0.792100
0.963000   0.798608
0.963500   0.803269
0.964000   0.807150
0.964500   0.810115
0.965000   0.811650
0.965500   0.812199
0.966000   0.812108
0.966500   0.811189
0.967000   0.809759
0.967500   0.808882
0.968000   0.807441
0.968500   0.806608
0.969000   0.806689
0.969500   0.807309
0.970000   0.808066
0.970500   0.809562
0.971000   0.812138
0.971500   0.814572
0.972000   0.817280
0.972500   0.819641
0.973000   0.821579
0.973500   0.822846
0.974000   0.823743
0.974500   0.823996
0.975000   0.823525
0.975500   0.822287
0.976000   0.820878
0.976500   0.819238
0.977000   0.817718
0.977500   0.816641
0.978000   0.816027
0.978500   0.816344
0.979000   0.817533
0.979500   0.818644
0.980000   0.821877
0.980500   0.824290
0.981000   0.828187
0.981500   0.831943
0.982000   0.835789
0.982500   0.838526
0.983000   0.840858
0.983500   0.842026
0.984000   0.842524
0.984500   0.841263
0.985000   0.838626
0.985500   0.835517
0.986000   0.831101
0.986500   0.826040
0.987000   0.821147
0.987500   0.815601
0.988000   0.810663
0.988500   0.807123
0.989000   0.803899
0.989500   0.802357
0.990000   0.802140
0.990500   0.802998
0.991000   0.805457
0.991500   0.809131
0.992000   0.813164
0.992500   0.817901
0.993000   0.823373
0.993500   0.828564
0.994000   0.833452
0.994500   0.837703
0.995000   0.840934
0.995500   0.842930
0.996000   0.844178
0.996500   0.844312
0.997000   0.843485
0.997500   0.841826
0.998000   0.840181
0.998500   0.837946
0.999000   0.835704
0.999500   0.834114
1.00000   0.832621
1.00050   0.832061
1.00100   0.832112
1.00150   0.832834
1.00200   0.834207
1.00250   0.836003
1.00300   0.837994
1.00350   0.840551
1.00400   0.842406
1.00450   0.844042
1.00500   0.845468
1.00550   0.845870
1.00600   0.845796
1.00650   0.844851
1.00700   0.843669
1.00750   0.841306
1.00800   0.838719
1.00850   0.836123
1.00900   0.833009
1.00950   0.830424
1.01000   0.827834
1.01050   0.826311
1.01100   0.824372
1.01150   0.823431
1.01200   0.822383
1.01250   0.822082
1.01300   0.821505
1.01350   0.820789
1.01400   0.820127
1.01450   0.818936
1.01500   0.816675
1.01550   0.813963
1.01600   0.809803
1.01650   0.804993
1.01700   0.799694
1.01750   0.793927
1.01800   0.787304
1.01850   0.780620
1.01900   0.773070
1.01950   0.766153
1.02000   0.759944
1.02050   0.754138
1.02100   0.749146
1.02150   0.745260
1.02200   0.741822
1.02250   0.739624
1.02300   0.738473
1.02350   0.738265
1.02400   0.739260
1.02450   0.740140
1.02500   0.742296
1.02550   0.744565
1.02600   0.747094
1.02650   0.749251
1.02700   0.751994
1.02750   0.753220
1.02800   0.754582
1.02850   0.755597
1.02900   0.755936
1.02950   0.756016
1.03000   0.755541
1.03050   0.754952
1.03100   0.754262
1.03150   0.753250
1.03200   0.752838
1.03250   0.752691
1.03300   0.752731
1.03350   0.753605
1.03400   0.754878
1.03450   0.756519
1.03500   0.759302
1.03550   0.761991
1.03600   0.764814
1.03650   0.768663
1.03700   0.771874
1.03750   0.775486
1.03800   0.779173
1.03850   0.782673
1.03900   0.785802
1.03950   0.788373
1.04000   0.790384
1.04050   0.793189
1.04100   0.794911
1.04150   0.796962
1.04200   0.799572
1.04250   0.801715
1.04300   0.804372
1.04350   0.807211
1.04400   0.810537
1.04450   0.814496
1.04500   0.818376
1.04550   0.821902
1.04600   0.825493
1.04650   0.828756
1.04700   0.830800
1.04750   0.832171
1.04800   0.831961
1.04850   0.829726
1.04900   0.825811
1.04950   0.819912
1.05000   0.812262
1.05050   0.802014
1.05100   0.789457
1.05150   0.776051
1.05200   0.762482
1.05250   0.748024
1.05300   0.733756
1.05350   0.719635
1.05400   0.705265
1.05450   0.691905
1.05500   0.681476
1.05550   0.671776
1.05600   0.663927
1.05650   0.657731
1.05700   0.653363
1.05750   0.651144
1.05800   0.650940
1.05850   0.652141
1.05900   0.655379
1.05950   0.660140
1.06000   0.666619
1.06050   0.674353
1.06100   0.683083
1.06150   0.692556
1.06200   0.701858
1.06250   0.712816
1.06300   0.722695
1.06350   0.734003
1.06400   0.743037
1.06450   0.752209
1.06500   0.760276
1.06550   0.767333
1.06600   0.773839
1.06650   0.779017
1.06700   0.783189
1.06750   0.786203
1.06800   0.787704
1.06850   0.788790
1.06900   0.787827
1.06950   0.786371
1.07000   0.783021
1.07050   0.779662
1.07100   0.774582
1.07150   0.767901
1.07200   0.760064
1.07250   0.750960
1.07300   0.740117
1.07350   0.728503
1.07400   0.716531
1.07450   0.703338
1.07500   0.689928
1.07550   0.675919
1.07600   0.661285
1.07650   0.647319
1.07700   0.634519
1.07750   0.622481
1.07800   0.610999
1.07850   0.600765
1.07900   0.591543
1.07950   0.583915
1.08000   0.578693
1.08050   0.574919
1.08100   0.572970
1.08150   0.572778
1.08200   0.574565
1.08250   0.578615
1.08300   0.584285
1.08350   0.591224
1.08400   0.600665
1.08450   0.611616
1.08500   0.623769
1.08550   0.638114
1.08600   0.653764
1.08650   0.668928
1.08700   0.685269
1.08750   0.702403
1.08800   0.718614
1.08850   0.735586
1.08900   0.753004
1.08950   0.767806
1.09000   0.781696
1.09050   0.794361
1.09100   0.805937
1.09150   0.816057
1.09200   0.825159
1.09250   0.832437
1.09300   0.838078
1.09350   0.842986
1.09400   0.846176
1.09450   0.849139
1.09500   0.850641
1.09550   0.851228
1.09600   0.851280
1.09650   0.850059
1.09700   0.848175
1.09750   0.845461
1.09800   0.841133
1.09850   0.836379
1.09900   0.830918
1.09950   0.823860
1.10000   0.816533
1.10050   0.807506
1.10100   0.797962
1.10150   0.787494
1.10200   0.777266
1.10250   0.767491
1.10300   0.757420
1.10350   0.747531
1.10400   0.738056
1.10450   0.729659
1.10500   0.722327
1.10550   0.716753
1.10600   0.712631
1.10650   0.708997
1.10700   0.707756
1.10750   0.708242
1.10800   0.710147
1.10850   0.713730
1.10900   0.718729
1.10950   0.725139
1.11000   0.733233
1.11050   0.742269
1.11100   0.752437
1.11150   0.762927
1.11200   0.773254
1.11250   0.783870
1.11300   0.793946
1.11350   0.803494
1.11400   0.812552
1.11450   0.819519
1.11500   0.825043
1.11550   0.828858
1.11600   0.831420
1.11650   0.832108
1.11700   0.831346
1.11750   0.829315
1.11800   0.826023
1.11850   0.822531
1.11900   0.818461
1.11950   0.813978
1.12000   0.809326
1.12050   0.804709
1.12100   0.801092
1.12150   0.798072
1.12200   0.795895
1.12250   0.794200
1.12300   0.793489
1.12350   0.793540
1.12400   0.794300
1.12450   0.795455
1.12500   0.797215
1.12550   0.799059
1.12600   0.801283
1.12650   0.802905
1.12700   0.804968
1.12750   0.806178
1.12800   0.807053
1.12850   0.807192
1.12900   0.807135
1.12950   0.806031
1.13000   0.804559
1.13050   0.802736
1.13100   0.800460
1.13150   0.798150
1.13200   0.795647
1.13250   0.793173
1.13300   0.790689
1.13350   0.788969
1.13400   0.787435
1.13450   0.786841
1.13500   0.786550
1.13550   0.787053
1.13600   0.788307
1.13650   0.790199
1.13700   0.792480
1.13750   0.794978
1.13800   0.798057
1.13850   0.801278
1.13900   0.804790
1.13950   0.807898
1.14000   0.810459
1.14050   0.812518
1.14100   0.813721
1.14150   0.814271
1.14200   0.813808
1.14250   0.812183
1.14300   0.810140
1.14350   0.806941
1.14400   0.803200
1.14450   0.798664
1.14500   0.793561
1.14550   0.788098
1.14600   0.782509
1.14650   0.777381
1.14700   0.772600
1.14750   0.768368
1.14800   0.764784
1.14850   0.761918
1.14900   0.759903
1.14950   0.759000
1.15000   0.758908
1.15050   0.760325
1.15100   0.762660
1.15150   0.765741
1.15200   0.770112
1.15250   0.774937
1.15300   0.780948
1.15350   0.786712
1.15400   0.793476
1.15450   0.799912
1.15500   0.807112
1.15550   0.813802
1.15600   0.819453
1.15650   0.824999
1.15700   0.829933
1.15750   0.834052
1.15800   0.837105
1.15850   0.839570
1.15900   0.840755
1.15950   0.841314
1.16000   0.841023
1.16050   0.840124
1.16100   0.838759
1.16150   0.836856
1.16200   0.834750
1.16250   0.832782
1.16300   0.830559
1.16350   0.828403
1.16400   0.826680
1.16450   0.825295
1.16500   0.823825
1.16550   0.823235
1.16600   0.822626
1.16650   0.822551
1.16700   0.822669
1.16750   0.823000
1.16800   0.823867
1.16850   0.824326
1.16900   0.824993
1.16950   0.825685
1.17000   0.825993
1.17050   0.826141
1.17100   0.826559
1.17150   0.826131
1.17200   0.825451
1.17250   0.824815
1.17300   0.824099
1.17350   0.822639
1.17400   0.821549
1.17450   0.820532
1.17500   0.819202
1.17550   0.818269
1.17600   0.817386
1.17650   0.817003
1.17700   0.816723
1.17750   0.817010
1.17800   0.817789
1.17850   0.818755
1.17900   0.820096
1.17950   0.822240
1.18000   0.824295
1.18050   0.826770
1.18100   0.829502
1.18150   0.831802
1.18200   0.834248
1.18250   0.836362
1.18300   0.838158
1.18350   0.839311
1.18400   0.839986
1.18450   0.839887
1.18500   0.838564
1.18550   0.836679
1.18600   0.833686
1.18650   0.829678
1.18700   0.825275
1.18750   0.820122
1.18800   0.814338
1.18850   0.808264
1.18900   0.801571
1.18950   0.794688
1.19000   0.787763
1.19050   0.781091
1.19100   0.775294
1.19150   0.770034
1.19200   0.765542
1.19250   0.761534
1.19300   0.758115
1.19350   0.755846
1.19400   0.755111
1.19450   0.754571
1.19500   0.755635
1.19550   0.757950
1.19600   0.761034
1.19650   0.765484
1.19700   0.770669
1.19750   0.775843
1.19800   0.782595
1.19850   0.789338
1.19900   0.797453
1.19950   0.806040
1.20000   0.813736
1.20050   0.821055
1.20100   0.828382
1.20150   0.835754
1.20200   0.842421
1.20250   0.849071
1.20300   0.854329
1.20350   0.858942
1.20400   0.862090
1.20450   0.864881
1.20500   0.866712
1.20550   0.868031
1.20600   0.868106
1.20650   0.867927
1.20700   0.866710
1.20750   0.865870
1.20800   0.863990
1.20850   0.862053
1.20900   0.860237
1.20950   0.858608
1.21000   0.856671
1.21050   0.855774
1.21100   0.854325
1.21150   0.853403
1.21200   0.852749
1.21250   0.852175
1.21300   0.852409
1.21350   0.852775
1.21400   0.853122
1.21450   0.853749
1.21500   0.854838
1.21550   0.855330
1.21600   0.856572
1.21650   0.856687
1.21700   0.857561
1.21750   0.858056
1.21800   0.857870
1.21850   0.858741
1.21900   0.858404
1.21950   0.858557
1.22000   0.857435
1.22050   0.857310
1.22100   0.856565
1.22150   0.855879
1.22200   0.855309
1.22250   0.854727
1.22300   0.853667
1.22350   0.853741
1.22400   0.853415
1.22450   0.853036
1.22500   0.853288
1.22550   0.853691
1.22600   0.853799
1.22650   0.854832
1.22700   0.854591
1.22750   0.855534
1.22800   0.856243
1.22850   0.856737
1.22900   0.857451
1.22950   0.857632
1.23000   0.857307
1.23050   0.857052
1.23100   0.855794
1.23150   0.854184
1.23200   0.852329
1.23250   0.849446
1.23300   0.846017
1.23350   0.842299
1.23400   0.836905
1.23450   0.831722
1.23500   0.826623
1.23550   0.820254
1.23600   0.814194
1.23650   0.807333
1.23700   0.800629
1.23750   0.793766
1.23800   0.787639
1.23850   0.781612
1.23900   0.775761
1.23950   0.770339
1.24000   0.765596
1.24050   0.761233
1.24100   0.757790
1.24150   0.754885
1.24200   0.753109
1.24250   0.751827
1.24300   0.751529
1.24350   0.752033
1.24400   0.753008
1.24450   0.755198
1.24500   0.757614
1.24550   0.760862
1.24600   0.764794
1.24650   0.769388
1.24700   0.774619
1.24750   0.779476
1.24800   0.784823
1.24850   0.790371
1.24900   0.796205
1.24950   0.802504
1.25000   0.807908
1.25050   0.813782
1.25100   0.818608
1.25150   0.823667
1.25200   0.828204
1.25250   0.832431
1.25300   0.836321
1.25350   0.839830
1.25400   0.842437
1.25450   0.844834
1.25500   0.847056
1.25550   0.848586
1.25600   0.850100
1.25650   0.851123
1.25700   0.852088
1.25750   0.853032
1.25800   0.853465
1.25850   0.854452
1.25900   0.854987
1.25950   0.855489
1.26000   0.856321
1.26050   0.856754
1.26100   0.857766
1.26150   0.858620
1.26200   0.859480
1.26250   0.860349
1.26300   0.861470
1.26350   0.862436
1.26400   0.863352
1.26450   0.864519
1.26500   0.865075
1.26550   0.866044
1.26600   0.866850
1.26650   0.867388
1.26700   0.868139
1.26750   0.868429
1.26800   0.868663
1.26850   0.869038
1.26900   0.869292
1.26950   0.869424
1.27000   0.869401
1.27050   0.870054
1.27100   0.869505
1.27150   0.870283
1.27200   0.870355
1.27250   0.870879
1.27300   0.870996
1.27350   0.871370
1.27400   0.871640
1.27450   0.872618
1.27500   0.872961
1.27550   0.873363
1.27600   0.873649
1.27650   0.873532
1.27700   0.872823
1.27750   0.872347
1.27800   0.870365
1.27850   0.868784
1.27900   0.866351
1.27950   0.862075
1.28000   0.857664
1.28050   0.853333
1.28100   0.845888
1.28150   0.838631
1.28200   0.830780
1.28250   0.822788
1.28300   0.812674
1.28350   0.802581
1.28400   0.791991
1.28450   0.780493
1.28500   0.769381
1.28550   0.759074
1.28600   0.747760
1.28650   0.736588
1.28700   0.725968
1.28750   0.715795
1.28800   0.706400
1.28850   0.697708
1.28900   0.690530
1.28950   0.684008
1.29000   0.677937
1.29050   0.673459
1.29100   0.669654
1.29150   0.667509
1.29200   0.666345
1.29250   0.666492
1.29300   0.667843
1.29350   0.669957
1.29400   0.673868
1.29450   0.678891
1.29500   0.684607
1.29550   0.691617
1.29600   0.698816
1.29650   0.707210
1.29700   0.717042
1.29750   0.727057
1.29800   0.736701
1.29850   0.746465
1.29900   0.755951
1.29950   0.765040
1.30000   0.773871
1.30050   0.782365
1.30100   0.789163
1.30150   0.794946
1.30200   0.798994
1.30250   0.801746
1.30300   0.803486
1.30350   0.803165
1.30400   0.801684
1.30450   0.798889
1.30500   0.794530
1.30550   0.789980
1.30600   0.783858
1.30650   0.776991
1.30700   0.769946
1.30750   0.763170
1.30800   0.756774
1.30850   0.750165
1.30900   0.744557
1.30950   0.738881
1.31000   0.734535
1.31050   0.731113
1.31100   0.729074
1.31150   0.727885
1.31200   0.727838
1.31250   0.728940
1.31300   0.731639
1.31350   0.735283
1.31400   0.739991
1.31450   0.745429
1.31500   0.752163
1.31550   0.759551
1.31600   0.767774
1.31650   0.775762
1.31700   0.784043
1.31750   0.791565
1.31800   0.798996
1.31850   0.805732
1.31900   0.811290
1.31950   0.815297
1.32000   0.817547
1.32050   0.817646
1.32100   0.815958
1.32150   0.812211
1.32200   0.805832
1.32250   0.797258
1.32300   0.787466
1.32350   0.775750
1.32400   0.763120
1.32450   0.749549
1.32500   0.734776
1.32550   0.719117
1.32600   0.702969
1.32650   0.688626
1.32700   0.674490
1.32750   0.660617
1.32800   0.648028
1.32850   0.636257
1.32900   0.625367
1.32950   0.616662
1.33000   0.609396
1.33050   0.603583
1.33100   0.598900
1.33150   0.596227
1.33200   0.595231
1.33250   0.596226
1.33300   0.598677
1.33350   0.603128
1.33400   0.609032
1.33450   0.617082
1.33500   0.627460
1.33550   0.638937
1.33600   0.651569
1.33650   0.665802
1.33700   0.681661
1.33750   0.697971
1.33800   0.717038
1.33850   0.736630
1.33900   0.753987
1.33950   0.772242
1.34000   0.789809
1.34050   0.805565
1.34100   0.820514
1.34150   0.832979
1.34200   0.841242
1.34250   0.846570
1.34300   0.848505
1.34350   0.846820
1.34400   0.841358
1.34450   0.831601
1.34500   0.818899
1.34550   0.804504
1.34600   0.787326
1.34650   0.768436
1.34700   0.747900
1.34750   0.724802
1.34800   0.702699
1.34850   0.682029
1.34900   0.661668
1.34950   0.642555
1.35000   0.624641
1.35050   0.606253
1.35100   0.589619
1.35150   0.575187
1.35200   0.562979
1.35250   0.551343
1.35300   0.541783
1.35350   0.532961
1.35400   0.525571
1.35450   0.519516
1.35500   0.515108
1.35550   0.512105
1.35600   0.510254
1.35650   0.509753
1.35700   0.510326
1.35750   0.512066
1.35800   0.514614
1.35850   0.518075
1.35900   0.522157
1.35950   0.527000
1.36000   0.532281
1.36050   0.538842
1.36100   0.545257
1.36150   0.552176
1.36200   0.559442
1.36250   0.566402
1.36300   0.572931
1.36350   0.579543
1.36400   0.585971
1.36450   0.591668
1.36500   0.597395
1.36550   0.602456
1.36600   0.606683
1.36650   0.610687
1.36700   0.614213
1.36750   0.617075
1.36800   0.619632
1.36850   0.621629
1.36900   0.623137
1.36950   0.624309
1.37000   0.625063
1.37050   0.625590
1.37100   0.626099
1.37150   0.626628
1.37200   0.627544
1.37250   0.628297
1.37300   0.629384
1.37350   0.630853
1.37400   0.632676
1.37450   0.635206
1.37500   0.637752
1.37550   0.641011
1.37600   0.644788
1.37650   0.649268
1.37700   0.654049
1.37750   0.658833
1.37800   0.664156
1.37850   0.669753
1.37900   0.675910
1.37950   0.682447
1.38000   0.688997
1.38050   0.694490
1.38100   0.700283
1.38150   0.705137
1.38200   0.710171
1.38250   0.714077
1.38300   0.716786
1.38350   0.718678
1.38400   0.719370
1.38450   0.718492
1.38500   0.716904
1.38550   0.713496
1.38600   0.708993
1.38650   0.703260
1.38700   0.695582
1.38750   0.687280
1.38800   0.676830
1.38850   0.664364
1.38900   0.650555
1.38950   0.636521
1.39000   0.623718
1.39050   0.608099
1.39100   0.591516
1.39150   0.571963
1.39200   0.551706
1.39250   0.531099
1.39300   0.511425
1.39350   0.491496
1.39400   0.472075
1.39450   0.451696
1.39500   0.428819
1.39550   0.404686
1.39600   0.382542
1.39650   0.360360
1.39700   0.341327
1.39750   0.322856
1.39800   0.303846
1.39850   0.285483
1.39900   0.268146
1.39950   0.251514
1.40000   0.234013
1.40050   0.217517
1.40100   0.202150
1.40150   0.186787
1.40200   0.174425
1.40250   0.163716
1.40300   0.153707
1.40350   0.143080
1.40400   0.133248
1.40450   0.123728
1.40500   0.114759
1.40550   0.107116
1.40600   0.100085
1.40650   0.0937399
1.40700   0.0878336
1.40750   0.0821258
1.40800   0.0767275
1.40850   0.0719149
1.40900   0.0676842
1.40950   0.0634548
1.41000   0.0596611
1.41050   0.0558864
1.41100   0.0527116
1.41150   0.0499920
1.41200   0.0472757
1.41250   0.0447143
1.41300   0.0424953
1.41350   0.0401408
1.41400   0.0378444
1.41450   0.0358563
1.41500   0.0342149
1.41550   0.0324760
1.41600   0.0308914
1.41650   0.0296171
1.41700   0.0280721
1.41750   0.0267555
1.41800   0.0255660
1.41850   0.0243797
1.41900   0.0233093
1.41950   0.0222529
1.42000   0.0212457
1.42050   0.0202947
1.42100   0.0193756
1.42150   0.0185310
1.42200   0.0178826
1.42250   0.0170645
1.42300   0.0164438
1.42350   0.0156246
1.42400   0.0149843
1.42450   0.0143830
1.42500   0.0138488
1.42550   0.0132748
1.42600   0.0128049
1.42650   0.0122488
1.42700   0.0117197
1.42750   0.0113497
1.42800   0.0108365
1.42850   0.0104895
1.42900   0.00989747
1.42950   0.00962907
1.43000   0.00933145
1.43050   0.00896328
1.43100   0.00858694
1.43150   0.00823990
1.43200   0.00806501
1.43250   0.00775940
1.43300   0.00739591
1.43350   0.00708158
1.43400   0.00681740
1.43450   0.00665371
1.43500   0.00639623
1.43550   0.00618431
1.43600   0.00583011
1.43650   0.00559927
1.43700   0.00551366
1.43750   0.00520355
1.43800   0.00516975
1.43850   0.00489491
1.43900   0.00474720
1.43950   0.00458379
1.44000   0.00437600
1.44050   0.00422435
1.44100   0.00403374
1.44150   0.00390817
1.44200   0.00380888
1.44250   0.00371298
1.44300   0.00343722
1.44350   0.00340663
1.44400   0.00324129
1.44450   0.00314245
1.44500   0.00298482
1.44550   0.00282958
1.44600   0.00277447
1.44650   0.00269033
1.44700   0.00260297
1.44750   0.00243625
1.44800   0.00236230
1.44850   0.00228266
1.44900   0.00204549
1.44950   0.00205338
1.45000   0.00206018
1.45050   0.00193085
1.45100   0.00188657
1.45150   0.00174575
1.45200   0.00176256
1.45250   0.00165233
1.45300   0.00148791
1.45350   0.00156838
1.45400   0.00147036
1.45450   0.00143316
1.45500   0.00135646
1.45550   0.00128178
1.45600   0.00124201
1.45650   0.00121206
1.45700   0.00108594
1.45750   0.00111653
1.45800   0.00116466
1.45850   0.00109586
1.45900   0.000964046
1.45950   0.00104690
1.46000   0.00100878
1.46050   0.000875219
1.46100   0.000839303
1.46150   0.000982509
1.46200   0.000838935
1.46250   0.000876138
1.46300   0.000787311
1.46350   0.000733575
1.46400   0.000781892
1.46450   0.000616181
1.46500   0.000665141
1.46550   0.000652373
1.46600   0.000529835
1.46650   0.000617191
1.46700   0.000529008
1.46750   0.000481058
1.46800   0.000426862
1.46850   0.000441651
1.46900   0.000354570
1.46950   0.000340608
1.47000   0.000348324
1.47050   0.000314612
1.47100   0.000272817
1.47150   0.000230838
1.47200   0.000259681
1.47250   0.000244525
1.47300   0.000119690
1.47350   0.000223030
1.47400   0.000202087
1.47450   0.000224224
1.47500   0.000217427
1.47550   0.000189778
1.47600   4.90520e-05
1.47650   0.000148258
1.47700   0.000106096
1.47750   0.00000
1.47800   0.00000
1.47850   7.79871e-05
1.47900   0.000191248
1.47950   1.41461e-05
1.48000   7.16489e-06
1.48050   9.95736e-05
1.48100   2.13110e-05
1.48150   6.40248e-05
1.48200   5.68599e-05
1.48250   7.82627e-05
1.48300   5.68599e-05
1.48350   0.000149452
1.48400   3.55489e-05
1.48450   9.27762e-05
1.48500   5.00624e-05
1.48550   2.14947e-05
1.48600   5.74110e-05
1.48650   0.000143022
1.48700   6.47596e-05
1.48750   7.20164e-05
1.48800   0.000115189
1.48850   5.04298e-05
1.48900   0.00000
1.48950   0.00000
1.49000   0.000108392
1.49050   5.69517e-05
1.49100   0.00000
1.49150   0.00000
1.49200   0.000152392
1.49250   0.00000
1.49300   0.000136868
1.49350   0.00000
1.49400   6.42085e-05
1.49450   7.34861e-06
1.49500   8.03754e-05
1.49550   0.00000
1.49600   6.59538e-05
1.49650   7.25675e-06
1.49700   0.00000
1.49750   1.47891e-05
1.49800   1.46972e-05
1.49850   7.36698e-05
1.49900   0.000162312
1.49950   7.25675e-06
1.50000   1.24008e-05
1.50050   0.00000
1.50100   4.94194e-05
1.50150   2.96700e-05
1.50200   0.00000
1.50250   7.44047e-06
1.50300   0.00000
1.50350   0.000131448
1.50400   0.000134571
1.50450   3.73860e-05
1.50500   8.67136e-05
1.50550   0.00000
1.50600   0.00000
1.50650   3.01293e-05
1.50700   3.01293e-05
1.50750   0.00000
1.50800   4.52858e-05
1.50850   4.92357e-05
1.50900   0.00000
1.50950   0.00000
1.51000   0.000121344
1.51050   0.00000
1.51100   8.69892e-05
1.51150   0.00000
1.51200   1.10229e-05
1.51250   4.90520e-05
1.51300   6.88013e-05
1.51350   0.00000
1.51400   7.20164e-05
1.51450   0.00000
1.51500   1.44565e-08
1.51550   3.84883e-05
1.51600   0.00000
1.51650   0.00000
1.51700   5.66761e-05
1.51750   0.00000
1.51800   7.71604e-06
1.51850   1.01043e-05
1.51900   7.76197e-05
1.51950   3.88558e-05
1.52000   0.000111056
1.52050   2.11272e-06
1.52100   0.00000
1.52150   3.90395e-05
1.52200   0.00000
1.52250   0.00000
1.52300   3.10267e-08
1.52350   7.22001e-05
1.52400   0.00000
1.52450   0.00000
1.52500   0.00000
1.52550   0.00000
1.52600   0.00000
1.52650   3.15990e-05
1.52700   0.000126672
1.52750   3.96825e-05
1.52800   7.99161e-06
1.52850   4.85008e-05
1.52900   7.95487e-05
1.52950   5.64006e-05
1.53000   0.00000
1.53050   7.23838e-05
1.53100   2.39748e-05
1.53150   4.04173e-05
1.53200   5.61250e-05
1.53250   2.42504e-05
1.53300   0.00000
1.53350   0.00000
1.53400   0.00000
1.53450   6.43922e-05
1.53500   4.05092e-05
1.53550   0.00000
1.53600   7.29349e-05
1.53650   0.00000
1.53700   0.00000
1.53750   2.44341e-05
1.53800   0.00000
1.53850   9.78283e-05
1.53900   4.81334e-05
1.53950   9.00205e-05
1.54000   3.27932e-05
1.54050   0.00000
1.54100   7.38535e-05
1.54150   0.000123365
1.54200   0.00000
1.54250   2.48016e-05
1.54300   0.00000
1.54350   0.00000
1.54400   6.52189e-06
1.54450   0.00000
1.54500   0.00000
1.54550   0.00000
1.54600   3.99250e-08
1.54650   0.00000
1.54700   0.000125018
1.54750   0.00000
1.54800   0.00000
1.54850   5.60331e-05
1.54900   0.00000
1.54950   1.68099e-05
1.55000   1.68099e-05
1.55050   0.00000
1.55100   1.38705e-05
1.55150   0.00000
1.55200   5.91563e-05
1.55250   2.59525e-08
1.55300   0.000203281
1.55350   3.05886e-05
1.55400   0.000127406
1.55450   9.84713e-05
1.55500   5.11647e-05
1.55550   0.00000
1.55600   0.00000
1.55650   0.00000
1.55700   9.86551e-05
1.55750   1.70855e-05
1.55800   7.30268e-05
1.55850   4.25898e-08
1.55900   0.00000
1.55950   0.00000
1.56000   4.72148e-05
1.56050   0.00000
1.56100   3.85802e-06
1.56150   0.000103983
1.56200   0.00000
1.56250   0.00000
1.56300   0.000226153
1.56350   7.32105e-05
1.56400   0.00000
1.56450   9.60831e-05
1.56500   5.25425e-05
1.56550   0.000131265
1.56600   2.05761e-05
1.56650   0.00000
1.56700   0.00000
1.56750   4.39998e-05
1.56800   9.69098e-05
1.56850   6.18202e-05
1.56900   7.33024e-05
1.56950   0.000108668
1.57000   5.55739e-05
1.57050   0.00000
1.57100   1.78204e-05
1.57150   3.56408e-05
1.57200   3.56408e-05
1.57250   0.00000
1.57300   3.75698e-05
1.57350   0.00000
1.57400   8.91019e-06
1.57450   0.00000
1.57500   3.74779e-05
1.57550   1.94738e-05
1.57600   9.00205e-06
1.57650   6.31062e-05
1.57700   0.00000
1.57750   0.00000
1.57800   3.72023e-05
1.57850   0.00000
1.57900   2.81084e-05
1.57950   6.43922e-05
1.58000   0.00000
1.58050   6.43922e-05
1.58100   0.00000
1.58150   0.00000
1.58200   0.00000
1.58250   0.000183256
1.58300   0.000101043
1.58350   1.83715e-05
1.58400   5.52064e-05
1.58450   2.76491e-05
1.58500   9.18576e-06
1.58550   1.82245e-08
1.58600   0.00000
1.58650   7.41291e-05
1.58700   4.63881e-05
1.58750   4.57451e-05
1.58800   0.00000
1.58850   0.00000
1.58900   0.00000
1.58950   5.50227e-05
1.59000   1.75448e-05
1.59050   0.00000
1.59100   8.31311e-05
1.59150   3.61000e-05
1.59200   0.00000
1.59250   5.10094e-09
1.59300   0.000113169
